Wavelength (nm),Au I (2.0e-01)
212.539,1.433e-6
212.544,2.198e-5
212.549,3.020e-4
212.554,3.714e-3
212.559,4.090e-2
212.564,4.033e-1
212.569,3.560e+0
212.574,2.814e+1
212.579,1.992e+2
212.584,1.262e+3
212.589,7.158e+3
212.594,3.636e+4
212.599,1.653e+5
212.604,6.732e+5
212.609,2.454e+6
212.614,8.011e+6
212.619,2.341e+7
212.624,6.125e+7
212.629,1.435e+8
212.634,3.010e+8
212.639,5.652e+8
212.644,9.503e+8
212.649,1.430e+9
212.654,1.928e+9
212.659,2.327e+9
212.664,2.514e+9
212.669,2.432e+9
212.674,2.106e+9
212.679,1.633e+9
212.684,1.134e+9
212.689,7.050e+8
212.694,3.924e+8
212.699,1.955e+8
212.704,8.725e+7
212.709,3.485e+7
212.714,1.247e+7
212.719,3.992e+6
212.724,1.145e+6
212.729,2.938e+5
212.734,6.753e+4
212.739,1.390e+4
212.744,2.560e+3
212.749,4.224e+2
212.754,6.238e+1
212.759,8.249e+0
212.764,9.767e-1
212.769,1.035e-1
212.774,9.826e-3
212.779,8.350e-4
212.784,6.353e-5
212.789,4.328e-6
212.794,2.640e-7
235.121,9.184e-7
235.126,1.121e-5
235.131,1.251e-4
235.136,1.275e-3
235.141,1.187e-2
235.146,1.010e-1
235.151,7.853e-1
235.156,5.577e+0
235.161,3.618e+1
235.166,2.145e+2
235.171,1.162e+3
235.176,5.748e+3
235.181,2.598e+4
235.186,1.073e+5
235.191,4.049e+5
235.196,1.396e+6
235.201,4.396e+6
235.206,1.265e+7
235.211,3.326e+7
235.216,7.989e+7
235.221,1.753e+8
235.226,3.515e+8
235.231,6.438e+8
235.236,1.077e+9
235.241,1.647e+9
235.246,2.301e+9
235.251,2.937e+9
235.256,3.424e+9
235.261,3.648e+9
235.266,3.550e+9
235.271,3.157e+9
235.276,2.565e+9
235.281,1.903e+9
235.286,1.291e+9
235.291,7.997e+8
235.296,4.526e+8
235.301,2.341e+8
235.306,1.106e+8
235.311,4.774e+7
235.316,1.883e+7
235.321,6.783e+6
235.326,2.233e+6
235.331,6.715e+5
235.336,1.845e+5
235.341,4.632e+4
235.346,1.062e+4
235.351,2.226e+3
235.356,4.262e+2
235.361,7.454e+1
235.366,1.191e+1
235.371,1.739e+0
235.376,2.319e-1
235.381,2.827e-2
235.386,3.147e-3
235.391,3.201e-4
235.396,2.975e-5
235.401,2.526e-6
235.406,1.959e-7
242.649,6.722e-5
242.654,7.539e-4
242.659,7.768e-3
242.664,7.353e-2
242.669,6.395e-1
242.674,5.109e+0
242.679,3.749e+1
242.684,2.528e+2
242.689,1.566e+3
242.694,8.911e+3
242.699,4.658e+4
242.704,2.237e+5
242.709,9.870e+5
242.714,4.001e+6
242.719,1.490e+7
242.724,5.096e+7
242.729,1.601e+8
242.734,4.623e+8
242.739,1.226e+9
242.744,2.988e+9
242.749,6.688e+9
242.754,1.375e+10
242.759,2.598e+10
242.764,4.510e+10
242.769,7.190e+10
242.774,1.053e+11
242.779,1.417e+11
242.784,1.752e+11
242.789,1.990e+11
242.794,2.076e+11
242.799,1.990e+11
242.804,1.752e+11
242.809,1.417e+11
242.814,1.053e+11
242.819,7.190e+10
242.824,4.510e+10
242.829,2.598e+10
242.834,1.375e+10
242.839,6.688e+9
242.844,2.988e+9
242.849,1.226e+9
242.854,4.623e+8
242.859,1.601e+8
242.864,5.096e+7
242.869,1.490e+7
242.874,4.001e+6
242.879,9.870e+5
242.884,2.237e+5
242.889,4.658e+4
242.894,8.911e+3
242.899,1.566e+3
242.904,2.528e+2
242.909,3.749e+1
242.914,5.109e+0
242.919,6.395e-1
242.924,7.353e-2
242.929,7.768e-3
242.934,7.539e-4
242.939,6.722e-5
263.991,8.599e-7
263.996,7.873e-6
264.001,6.709e-5
264.006,5.322e-4
264.011,3.930e-3
264.016,2.701e-2
264.021,1.728e-1
264.026,1.029e+0
264.031,5.705e+0
264.036,2.944e+1
264.041,1.414e+2
264.046,6.323e+2
264.051,2.632e+3
264.056,1.020e+4
264.061,3.677e+4
264.066,1.234e+5
264.071,3.858e+5
264.076,1.122e+6
264.081,3.038e+6
264.086,7.657e+6
264.091,1.796e+7
264.096,3.923e+7
264.101,7.975e+7
264.106,1.509e+8
264.111,2.658e+8
264.116,4.358e+8
264.121,6.652e+8
264.126,9.450e+8
264.131,1.250e+9
264.136,1.538e+9
264.141,1.763e+9
264.146,1.880e+9
264.151,1.867e+9
264.156,1.725e+9
264.161,1.484e+9
264.166,1.189e+9
264.171,8.860e+8
264.176,6.148e+8
264.181,3.971e+8
264.186,2.387e+8
264.191,1.336e+8
264.196,6.960e+7
264.201,3.375e+7
264.206,1.524e+7
264.211,6.401e+6
264.216,2.504e+6
264.221,9.115e+5
264.226,3.089e+5
264.231,9.745e+4
264.236,2.862e+4
264.241,7.822e+3
264.246,1.990e+3
264.251,4.714e+2
264.256,1.039e+2
264.261,2.133e+1
264.266,4.074e+0
264.271,7.244e-1
264.276,1.199e-1
264.281,1.847e-2
264.286,2.650e-3
264.291,3.537e-4
264.296,4.396e-5
264.301,5.085e-6
264.306,5.475e-7
267.432,1.375e-5
267.437,1.275e-4
267.442,1.103e-3
267.447,8.900e-3
267.452,6.696e-2
267.457,4.698e-1
267.462,3.073e+0
267.467,1.875e+1
267.472,1.067e+2
267.477,5.661e+2
267.482,2.801e+3
267.487,1.293e+4
267.492,5.562e+4
267.497,2.232e+5
267.502,8.354e+5
267.507,2.915e+6
267.512,9.489e+6
267.517,2.880e+7
267.522,8.151e+7
267.527,2.151e+8
267.532,5.296e+8
267.537,1.216e+9
267.542,2.602e+9
267.547,5.195e+9
267.552,9.671e+9
267.557,1.679e+10
267.562,2.718e+10
267.567,4.104e+10
267.572,5.778e+10
267.577,7.587e+10
267.582,9.289e+10
267.587,1.061e+11
267.592,1.130e+11
267.597,1.122e+11
267.602,1.039e+11
267.607,8.971e+10
267.612,7.225e+10
267.617,5.426e+10
267.622,3.800e+10
267.627,2.482e+10
267.632,1.512e+10
267.637,8.588e+9
267.642,4.549e+9
267.647,2.247e+9
267.652,1.035e+9
267.657,4.447e+8
267.662,1.782e+8
267.667,6.657e+7
267.672,2.319e+7
267.677,7.536e+6
267.682,2.283e+6
267.687,6.452e+5
267.692,1.700e+5
267.697,4.178e+4
267.702,9.574e+3
267.707,2.046e+3
267.712,4.077e+2
267.717,7.578e+1
267.722,1.313e+1
267.727,2.123e+0
267.732,3.200e-1
267.737,4.497e-2
267.742,5.895e-3
267.747,7.206e-4
267.752,8.215e-5
267.757,8.733e-6
274.659,1.403e-6
274.664,1.222e-5
274.669,9.966e-5
274.674,7.606e-4
274.679,5.433e-3
274.684,3.632e-2
274.689,2.273e-1
274.694,1.331e+0
274.699,7.296e+0
274.704,3.743e+1
274.709,1.797e+2
274.714,8.076e+2
274.719,3.397e+3
274.724,1.337e+4
274.729,4.927e+4
274.734,1.699e+5
274.739,5.484e+5
274.744,1.657e+6
274.749,4.684e+6
274.754,1.240e+7
274.759,3.070e+7
274.764,7.116e+7
274.769,1.544e+8
274.774,3.135e+8
274.779,5.959e+8
274.784,1.060e+9
274.789,1.765e+9
274.794,2.750e+9
274.799,4.010e+9
274.804,5.474e+9
274.809,6.993e+9
274.814,8.361e+9
274.819,9.357e+9
274.824,9.801e+9
274.829,9.608e+9
274.834,8.816e+9
274.839,7.571e+9
274.844,6.085e+9
274.849,4.578e+9
274.854,3.223e+9
274.859,2.124e+9
274.864,1.310e+9
274.869,7.562e+8
274.874,4.086e+8
274.879,2.066e+8
274.884,9.778e+7
274.889,4.331e+7
274.894,1.796e+7
274.899,6.968e+6
274.904,2.531e+6
274.909,8.602e+5
274.914,2.737e+5
274.919,8.149e+4
274.924,2.271e+4
274.929,5.924e+3
274.934,1.446e+3
274.939,3.304e+2
274.944,7.067e+1
274.949,1.414e+1
274.954,2.650e+0
274.959,4.646e-1
274.964,7.624e-2
274.969,1.171e-2
274.974,1.683e-3
274.979,2.265e-4
274.984,2.852e-5
274.989,3.361e-6
312.091,3.216e-6
312.096,2.133e-5
312.101,1.344e-4
312.106,8.044e-4
312.111,4.574e-3
312.116,2.471e-2
312.121,1.268e-1
312.126,6.185e-1
312.131,2.865e+0
312.136,1.261e+1
312.141,5.271e+1
312.146,2.094e+2
312.151,7.900e+2
312.156,2.832e+3
312.161,9.645e+3
312.166,3.120e+4
312.171,9.591e+4
312.176,2.801e+5
312.181,7.769e+5
312.186,2.048e+6
312.191,5.127e+6
312.196,1.219e+7
312.201,2.756e+7
312.206,5.915e+7
312.211,1.206e+8
312.216,2.338e+8
312.221,4.303e+8
312.226,7.524e+8
312.231,1.250e+9
312.236,1.973e+9
312.241,2.958e+9
312.246,4.213e+9
312.251,5.702e+9
312.256,7.330e+9
312.261,8.953e+9
312.266,1.039e+10
312.271,1.145e+10
312.276,1.199e+10
312.281,1.193e+10
312.286,1.128e+10
312.291,1.013e+10
312.296,8.637e+9
312.301,7.000e+9
312.306,5.389e+9
312.311,3.942e+9
312.316,2.739e+9
312.321,1.808e+9
312.326,1.134e+9
312.331,6.756e+8
312.336,3.824e+8
312.341,2.056e+8
312.346,1.050e+8
312.351,5.098e+7
312.356,2.351e+7
312.361,1.030e+7
312.366,4.284e+6
312.371,1.694e+6
312.376,6.361e+5
312.381,2.270e+5
312.386,7.694e+4
312.391,2.478e+4
312.396,7.579e+3
312.401,2.203e+3
312.406,6.082e+2
312.411,1.595e+2
312.416,3.976e+1
312.421,9.413e+0
312.426,2.117e+0
312.431,4.524e-1
312.436,9.183e-2
312.441,1.771e-2
312.446,3.244e-3
312.451,5.647e-4
312.456,9.338e-5
312.461,1.467e-5
312.466,2.189e-6
331.817,1.615e-7
331.822,9.603e-7
331.827,5.456e-6
331.832,2.962e-5
331.837,1.537e-4
331.842,7.621e-4
331.847,3.612e-3
331.852,1.636e-2
331.857,7.078e-2
331.862,2.927e-1
331.867,1.157e+0
331.872,4.371e+0
331.877,1.578e+1
331.882,5.442e+1
331.888,2.265e+2
331.893,7.072e+2
331.898,2.110e+3
331.903,6.016e+3
331.908,1.639e+4
331.913,4.269e+4
331.918,1.062e+5
331.923,2.526e+5
331.928,5.742e+5
331.933,1.247e+6
331.938,2.588e+6
331.943,5.134e+6
331.948,9.732e+6
331.953,1.763e+7
331.958,3.052e+7
331.963,5.050e+7
331.968,7.984e+7
331.973,1.206e+8
331.978,1.742e+8
331.983,2.404e+8
331.988,3.170e+8
331.993,3.995e+8
331.998,4.812e+8
332.003,5.538e+8
332.008,6.092e+8
332.013,6.403e+8
332.018,6.432e+8
332.023,6.175e+8
332.028,5.665e+8
332.033,4.967e+8
332.038,4.162e+8
332.043,3.332e+8
332.048,2.550e+8
332.053,1.865e+8
332.058,1.303e+8
332.063,8.703e+7
332.068,5.555e+7
332.073,3.388e+7
332.078,1.975e+7
332.083,1.100e+7
332.088,5.856e+6
332.093,2.979e+6
332.098,1.448e+6
332.103,6.729e+5
332.108,2.988e+5
332.113,1.268e+5
332.118,5.141e+4
332.123,1.992e+4
332.128,7.378e+3
332.133,2.611e+3
332.138,8.832e+2
332.143,2.855e+2
332.148,8.818e+1
332.153,2.603e+1
332.158,7.343e+0
332.163,1.980e+0
332.168,5.100e-1
332.173,1.256e-1
332.178,2.955e-2
332.183,6.644e-3
332.188,1.428e-3
332.193,2.932e-4
332.198,5.754e-5
332.203,1.079e-5
332.208,1.934e-6
332.213,3.313e-7
332.218,5.424e-8
379.373,3.173e-7
379.378,1.497e-6
379.383,6.819e-6
379.388,3.000e-5
379.393,1.275e-4
379.398,5.235e-4
379.403,2.076e-3
379.408,7.950e-3
379.413,2.941e-2
379.418,1.051e-1
379.423,3.627e-1
379.428,1.209e+0
379.433,3.893e+0
379.438,1.211e+1
379.443,3.637e+1
379.448,1.055e+2
379.453,2.958e+2
379.458,8.008e+2
379.463,2.094e+3
379.468,5.288e+3
379.473,1.290e+4
379.478,3.040e+4
379.483,6.918e+4
379.488,1.521e+5
379.493,3.229e+5
379.498,6.622e+5
379.503,1.312e+6
379.508,2.510e+6
379.513,4.639e+6
379.518,8.281e+6
379.523,1.428e+7
379.528,2.378e+7
379.533,3.825e+7
379.538,5.943e+7
379.543,8.920e+7
379.548,1.293e+8
379.553,1.810e+8
379.558,2.448e+8
379.563,3.198e+8
379.568,4.035e+8
379.573,4.918e+8
379.578,5.789e+8
379.583,6.582e+8
379.588,7.229e+8
379.593,7.668e+8
379.598,7.856e+8
379.603,7.775e+8
379.608,7.432e+8
379.613,6.862e+8
379.618,6.119e+8
379.623,5.271e+8
379.628,4.386e+8
379.633,3.525e+8
379.638,2.736e+8
379.643,2.051e+8
379.648,1.485e+8
379.653,1.039e+8
379.658,7.020e+7
379.663,4.582e+7
379.668,2.888e+7
379.673,1.758e+7
379.678,1.034e+7
379.683,5.873e+6
379.688,3.222e+6
379.693,1.708e+6
379.698,8.741e+5
379.703,4.322e+5
379.708,2.064e+5
379.713,9.519e+4
379.718,4.241e+4
379.723,1.825e+4
379.728,7.586e+3
379.733,3.046e+3
379.738,1.181e+3
379.743,4.424e+2
379.748,1.601e+2
379.753,5.593e+1
379.758,1.888e+1
379.763,6.155e+0
379.768,1.938e+0
379.773,5.896e-1
379.778,1.732e-1
379.783,4.915e-2
379.788,1.347e-2
379.793,3.567e-3
379.798,9.121e-4
379.803,2.253e-4
379.808,5.375e-5
379.813,1.238e-5
379.818,2.757e-6
379.823,5.926e-7
379.828,1.231e-7
406.267,5.457e-7
406.272,2.353e-6
406.277,9.844e-6
406.282,3.996e-5
406.287,1.573e-4
406.292,6.011e-4
406.297,2.228e-3
406.302,8.013e-3
406.307,2.796e-2
406.312,9.463e-2
406.317,3.108e-1
406.322,9.903e-1
406.327,3.061e+0
406.332,9.181e+0
406.337,2.671e+1
406.342,7.541e+1
406.347,2.066e+2
406.352,5.489e+2
406.357,1.415e+3
406.362,3.539e+3
406.367,8.589e+3
406.372,2.022e+4
406.377,4.619e+4
406.382,1.024e+5
406.387,2.201e+5
406.392,4.591e+5
406.397,9.291e+5
406.402,1.824e+6
406.407,3.475e+6
406.412,6.423e+6
406.417,1.152e+7
406.422,2.004e+7
406.427,3.382e+7
406.432,5.538e+7
406.437,8.798e+7
406.442,1.356e+8
406.447,2.028e+8
406.452,2.942e+8
406.457,4.142e+8
406.462,5.656e+8
406.467,7.494e+8
406.472,9.634e+8
406.477,1.202e+9
406.482,1.454e+9
406.487,1.707e+9
406.492,1.944e+9
406.497,2.148e+9
406.502,2.303e+9
406.507,2.395e+9
406.512,2.417e+9
406.517,2.366e+9
406.522,2.248e+9
406.527,2.071e+9
406.532,1.852e+9
406.537,1.606e+9
406.542,1.352e+9
406.547,1.104e+9
406.552,8.745e+8
406.557,6.721e+8
406.562,5.012e+8
406.567,3.625e+8
406.572,2.545e+8
406.577,1.733e+8
406.582,1.145e+8
406.587,7.338e+7
406.592,4.563e+7
406.597,2.753e+7
406.602,1.611e+7
406.607,9.151e+6
406.612,5.042e+6
406.617,2.695e+6
406.622,1.398e+6
406.627,7.034e+5
406.632,3.434e+5
406.637,1.626e+5
406.642,7.473e+4
406.647,3.331e+4
406.652,1.441e+4
406.657,6.047e+3
406.662,2.462e+3
406.667,9.724e+2
406.672,3.726e+2
406.677,1.385e+2
406.682,4.997e+1
406.687,1.749e+1
406.692,5.938e+0
406.697,1.956e+0
406.702,6.252e-1
406.707,1.939e-1
406.712,5.832e-2
406.717,1.702e-2
406.722,4.820e-3
406.727,1.324e-3
406.732,3.529e-4
406.737,9.127e-5
406.742,2.290e-5
406.747,5.574e-6
406.752,1.316e-6
406.757,3.016e-7
478.985,5.625e-7
478.99,1.949e-6
478.995,6.610e-6
479,2.193e-5
479.005,7.121e-5
479.01,2.262e-4
479.015,7.031e-4
479.02,2.138e-3
479.025,6.364e-3
479.03,1.853e-2
479.035,5.279e-2
479.04,1.472e-1
479.045,4.015e-1
479.05,1.071e+0
479.055,2.798e+0
479.06,7.150e+0
479.065,1.788e+1
479.07,4.374e+1
479.075,1.047e+2
479.08,2.452e+2
479.085,5.620e+2
479.09,1.260e+3
479.095,2.765e+3
479.1,5.937e+3
479.105,1.247e+4
479.11,2.563e+4
479.115,5.155e+4
479.12,1.015e+5
479.125,1.953e+5
479.13,3.680e+5
479.135,6.785e+5
479.14,1.224e+6
479.145,2.160e+6
479.15,3.730e+6
479.155,6.303e+6
479.16,1.042e+7
479.165,1.686e+7
479.17,2.669e+7
479.175,4.134e+7
479.18,6.265e+7
479.185,9.290e+7
479.19,1.348e+8
479.195,1.914e+8
479.2,2.658e+8
479.205,3.613e+8
479.21,4.806e+8
479.215,6.254e+8
479.22,7.963e+8
479.225,9.921e+8
479.23,1.209e+9
479.235,1.443e+9
479.24,1.684e+9
479.245,1.923e+9
479.25,2.149e+9
479.255,2.349e+9
479.26,2.513e+9
479.265,2.631e+9
479.27,2.694e+9
479.275,2.700e+9
479.28,2.648e+9
479.285,2.541e+9
479.29,2.385e+9
479.295,2.191e+9
479.3,1.969e+9
479.305,1.732e+9
479.31,1.490e+9
479.315,1.255e+9
479.32,1.034e+9
479.325,8.335e+8
479.33,6.575e+8
479.335,5.074e+8
479.34,3.832e+8
479.345,2.832e+8
479.35,2.047e+8
479.355,1.448e+8
479.36,1.003e+8
479.365,6.790e+7
479.37,4.500e+7
479.375,2.918e+7
479.38,1.851e+7
479.385,1.149e+7
479.39,6.982e+6
479.395,4.150e+6
479.4,2.414e+6
479.405,1.374e+6
479.41,7.648e+5
479.415,4.167e+5
479.42,2.221e+5
479.425,1.159e+5
479.43,5.913e+4
479.435,2.953e+4
479.44,1.443e+4
479.445,6.899e+3
479.45,3.227e+3
479.455,1.477e+3
479.46,6.617e+2
479.465,2.900e+2
479.47,1.243e+2
479.475,5.217e+1
479.48,2.142e+1
479.485,8.604e+0
479.49,3.382e+0
479.495,1.301e+0
479.5,4.894e-1
479.505,1.802e-1
479.51,6.492e-2
479.515,2.289e-2
479.52,7.894e-3
479.525,2.664e-3
479.53,8.798e-4
479.535,2.843e-4
479.54,8.988e-5
479.545,2.781e-5
479.55,8.417e-6
479.555,2.493e-6
479.56,7.224e-7
480.876,4.158e-8
480.881,1.446e-7
480.886,4.919e-7
480.891,1.638e-6
480.896,5.337e-6
480.901,1.702e-5
480.906,5.312e-5
480.911,1.622e-4
480.916,4.849e-4
480.921,1.418e-3
480.926,4.061e-3
480.931,1.138e-2
480.936,3.119e-2
480.941,8.368e-2
480.946,2.197e-1
480.951,5.646e-1
480.956,1.420e+0
480.961,3.494e+0
480.966,8.415e+0
480.971,1.983e+1
480.976,4.575e+1
480.981,1.033e+2
480.986,2.281e+2
480.991,4.932e+2
480.996,1.043e+3
481.001,2.160e+3
481.006,4.378e+3
481.011,8.681e+3
481.016,1.685e+4
481.021,3.199e+4
481.026,5.946e+4
481.031,1.082e+5
481.036,1.925e+5
481.041,3.354e+5
481.046,5.717e+5
481.051,9.538e+5
481.056,1.557e+6
481.061,2.488e+6
481.066,3.891e+6
481.071,5.954e+6
481.076,8.917e+6
481.081,1.307e+7
481.086,1.874e+7
481.091,2.631e+7
481.096,3.614e+7
481.101,4.858e+7
481.106,6.391e+7
481.111,8.228e+7
481.116,1.037e+8
481.121,1.278e+8
481.126,1.543e+8
481.131,1.822e+8
481.136,2.105e+8
481.141,2.381e+8
481.146,2.635e+8
481.151,2.855e+8
481.156,3.026e+8
481.161,3.139e+8
481.166,3.187e+8
481.171,3.166e+8
481.176,3.079e+8
481.181,2.930e+8
481.186,2.728e+8
481.191,2.486e+8
481.196,2.217e+8
481.201,1.935e+8
481.206,1.653e+8
481.211,1.382e+8
481.216,1.130e+8
481.221,9.049e+7
481.226,7.089e+7
481.231,5.435e+7
481.236,4.078e+7
481.241,2.995e+7
481.246,2.152e+7
481.251,1.514e+7
481.256,1.042e+7
481.261,7.016e+6
481.266,4.625e+6
481.271,2.983e+6
481.276,1.883e+6
481.281,1.163e+6
481.286,7.034e+5
481.291,4.162e+5
481.296,2.410e+5
481.301,1.366e+5
481.306,7.573e+4
481.311,4.110e+4
481.316,2.183e+4
481.321,1.135e+4
481.326,5.772e+3
481.331,2.873e+3
481.336,1.400e+3
481.341,6.673e+2
481.346,3.113e+2
481.351,1.422e+2
481.356,6.352e+1
481.361,2.778e+1
481.366,1.189e+1
481.371,4.979e+0
481.376,2.041e+0
481.381,8.185e-1
481.386,3.213e-1
481.391,1.234e-1
481.396,4.640e-2
481.401,1.707e-2
481.406,6.147e-3
481.411,2.166e-3
481.416,7.469e-4
481.421,2.521e-4
481.426,8.324e-5
481.431,2.690e-5
481.436,8.509e-6
481.441,2.634e-6
481.446,7.979e-7
481.451,2.365e-7
481.456,6.862e-8
583.389,1.886e-7
583.394,5.199e-7
583.399,1.412e-6
583.404,3.780e-6
583.409,9.972e-6
583.414,2.592e-5
583.419,6.639e-5
583.424,1.676e-4
583.429,4.168e-4
583.434,1.022e-3
583.439,2.468e-3
583.444,5.874e-3
583.449,1.378e-2
583.454,3.185e-2
583.459,7.254e-2
583.464,1.628e-1
583.469,3.602e-1
583.474,7.850e-1
583.479,1.686e+0
583.484,3.569e+0
583.489,7.444e+0
583.494,1.530e+1
583.499,3.099e+1
583.504,6.185e+1
583.509,1.217e+2
583.514,2.358e+2
583.519,4.504e+2
583.524,8.477e+2
583.529,1.572e+3
583.534,2.874e+3
583.539,5.176e+3
583.544,9.187e+3
583.549,1.607e+4
583.554,2.769e+4
583.559,4.704e+4
583.564,7.873e+4
583.569,1.298e+5
583.574,2.110e+5
583.579,3.380e+5
583.584,5.335e+5
583.589,8.297e+5
583.594,1.272e+6
583.599,1.921e+6
583.604,2.859e+6
583.609,4.192e+6
583.614,6.059e+6
583.619,8.630e+6
583.624,1.211e+7
583.629,1.675e+7
583.634,2.283e+7
583.639,3.066e+7
583.644,4.058e+7
583.649,5.292e+7
583.654,6.802e+7
583.659,8.614e+7
583.664,1.075e+8
583.669,1.322e+8
583.674,1.602e+8
583.679,1.914e+8
583.684,2.252e+8
583.689,2.612e+8
583.694,2.985e+8
583.699,3.362e+8
583.704,3.731e+8
583.709,4.081e+8
583.714,4.398e+8
583.719,4.670e+8
583.724,4.888e+8
583.729,5.041e+8
583.734,5.123e+8
583.739,5.130e+8
583.744,5.063e+8
583.749,4.924e+8
583.754,4.719e+8
583.759,4.456e+8
583.764,4.147e+8
583.769,3.803e+8
583.774,3.437e+8
583.779,3.061e+8
583.784,2.686e+8
583.789,2.323e+8
583.794,1.980e+8
583.799,1.662e+8
583.804,1.376e+8
583.809,1.122e+8
583.814,9.015e+7
583.819,7.139e+7
583.824,5.571e+7
583.829,4.284e+7
583.834,3.247e+7
583.839,2.425e+7
583.844,1.784e+7
583.849,1.294e+7
583.854,9.246e+6
583.859,6.511e+6
583.864,4.518e+6
583.869,3.090e+6
583.874,2.082e+6
583.879,1.383e+6
583.884,9.047e+5
583.889,5.834e+5
583.894,3.707e+5
583.899,2.322e+5
583.904,1.433e+5
583.909,8.711e+4
583.914,5.220e+4
583.919,3.083e+4
583.924,1.794e+4
583.929,1.029e+4
583.934,5.812e+3
583.939,3.236e+3
583.944,1.776e+3
583.949,9.603e+2
583.954,5.117e+2
583.959,2.687e+2
583.964,1.390e+2
583.969,7.090e+1
583.974,3.563e+1
583.979,1.764e+1
583.984,8.608e+0
583.989,4.139e+0
583.994,1.961e+0
583.999,9.158e-1
584.004,4.214e-1
584.009,1.911e-1
584.014,8.537e-2
584.019,3.759e-2
584.024,1.631e-2
584.029,6.975e-3
584.034,2.939e-3
584.039,1.220e-3
584.044,4.993e-4
584.049,2.013e-4
584.054,7.999e-5
584.059,3.132e-5
584.064,1.209e-5
584.069,4.595e-6
584.074,1.722e-6
584.079,6.357e-7
584.084,2.313e-7
584.089,8.294e-8